#Time		#Wave		#Intensity
0.000000	1722.566406	30.844776
0.000000	1721.590820	33.415173
0.000000	1720.613281	41.118038
0.000000	1719.636719	25.693569
0.000000	1718.659180	33.394875
0.000000	1717.682617	38.524738
0.000000	1716.705078	35.949131
0.000000	1715.727539	28.240019
0.000000	1714.749023	30.801044
0.000000	1713.771484	35.927261
0.000000	1712.792969	38.485680
0.000000	1711.814453	28.217102
0.000000	1710.835938	30.776043
0.000000	1709.856445	38.462238
0.000000	1708.877930	35.890797
0.000000	1707.898438	35.883499
0.000000	1706.918945	35.876205
0.000000	1705.939453	38.430973
0.000000	1704.958984	35.861614
0.000000	1703.979492	35.854317
0.000000	1702.999023	48.649525
0.000000	1702.018555	43.519661
0.000000	1701.038086	33.272961
0.000000	1700.056641	30.707247
0.000000	1699.076172	38.376236
0.000000	1698.094727	51.157887
0.000000	1697.113281	46.032711
0.000000	1696.131836	38.352768
0.000000	1695.149414	46.013935
0.000000	1694.167969	35.781311
0.000000	1693.185547	33.218723
0.000000	1692.203125	30.657175
0.000000	1691.219727	35.759399
0.000000	1690.237305	35.752094
0.000000	1689.253906	28.085192
0.000000	1688.270508	43.395515
0.000000	1687.287109	51.043110
0.000000	1686.303711	35.722870
0.000000	1685.320313	45.920010
0.000000	1684.335938	33.157665
0.000000	1683.351563	33.150879
0.000000	1682.367188	30.594547
0.000000	1681.382813	38.235352
0.000000	1680.397461	35.679020
0.000000	1679.412109	43.315647
0.000000	1678.426758	40.759312
0.000000	1677.441406	40.750957
0.000000	1676.456055	35.649776
0.000000	1675.469727	30.550682
0.000000	1674.483398	33.089783
0.000000	1673.497070	25.448454
0.000000	1672.510742	43.253494
0.000000	1671.524414	30.525608
0.000000	1670.537109	33.062618
0.000000	1669.549805	35.598579
0.000000	1668.562500	40.675732
0.000000	1667.575195	40.667370
0.000000	1666.587891	38.117821
0.000000	1665.599609	33.028652
0.000000	1664.611328	45.722572
0.000000	1663.623047	30.475443
0.000000	1662.634766	43.164658
0.000000	1661.646484	53.310070
0.000000	1660.657227	48.222988
0.000000	1659.667969	50.750584
0.000000	1658.678711	43.129108
0.000000	1657.689453	53.266155
0.000000	1656.699219	45.647293
0.000000	1655.708984	27.889816
0.000000	1654.718750	30.418980
0.000000	1653.728516	48.153450
0.000000	1652.738281	45.609642
0.000000	1651.747070	45.600231
0.000000	1650.756836	48.123638
0.000000	1649.765625	50.646000
0.000000	1648.773438	27.849546
0.000000	1647.782227	35.437553
0.000000	1646.790039	35.430233
0.000000	1645.798828	53.134361
0.000000	1644.806641	40.474953
0.000000	1643.813477	42.995743
0.000000	1642.821289	50.572762
0.000000	1641.828125	42.977955
0.000000	1640.834961	48.024242
0.000000	1639.841797	45.487232
0.000000	1638.848633	53.057449
0.000000	1637.854492	53.046459
0.000000	1636.861328	45.458973
0.000000	1635.867188	42.924580
0.000000	1634.873047	47.964584
0.000000	1633.877930	35.334999
0.000000	1632.883789	63.085125
0.000000	1631.888672	47.934750
0.000000	1630.893555	55.491879
0.000000	1629.898438	50.436695
0.000000	1628.902344	57.990158
0.000000	1627.907227	50.415752
0.000000	1626.911133	63.006603
0.000000	1625.915039	42.835590
0.000000	1624.918945	47.865124
0.000000	1623.921875	55.411259
0.000000	1622.924805	45.327057
0.000000	1621.928711	45.317635
0.000000	1620.930664	60.410946
0.000000	1619.933594	52.848579
0.000000	1618.936523	47.805431
0.000000	1617.938477	35.217724
0.000000	1616.940430	52.815590
0.000000	1615.942383	55.319096
0.000000	1614.943359	42.737671
0.000000	1613.945313	50.269138
0.000000	1612.946289	40.206932
0.000000	1611.947266	32.661324
0.000000	1610.948242	35.166401
0.000000	1609.948242	42.693153
0.000000	1608.949219	47.705925
0.000000	1607.949219	45.185658
0.000000	1606.949219	47.686020
0.000000	1605.948242	35.129734
0.000000	1604.948242	50.174854
0.000000	1603.947266	42.639721
0.000000	1602.946289	47.646206
0.000000	1601.945313	42.621910
0.000000	1600.944336	45.119652
0.000000	1599.942383	42.604095
0.000000	1598.940430	35.078392
0.000000	1597.938477	45.091358
0.000000	1596.936523	37.568272
0.000000	1595.934570	42.568470
0.000000	1594.931641	52.573578
0.000000	1593.928711	50.059593
0.000000	1592.925781	52.551571
0.000000	1591.922852	52.540565
0.000000	1590.918945	35.019707
0.000000	1589.915039	42.515022
0.000000	1588.911133	55.007912
0.000000	1587.907227	47.496880
0.000000	1586.903320	57.484169
0.000000	1585.898438	52.474541
0.000000	1584.894531	57.460060
0.000000	1583.889648	64.941231
0.000000	1582.883789	57.435955
0.000000	1581.878906	49.933826
0.000000	1580.873047	62.404182
0.000000	1579.867188	47.417221
0.000000	1578.861328	49.902382
0.000000	1577.855469	49.891903
0.000000	1576.848633	47.387348
0.000000	1575.842773	32.416107
0.000000	1574.835938	34.902317
0.000000	1573.828125	52.342472
0.000000	1572.821289	44.855541
0.000000	1571.813477	42.354656
0.000000	1570.805664	37.363895
0.000000	1569.797852	47.317642
0.000000	1568.790039	54.777317
0.000000	1567.782227	49.787079
0.000000	1566.773438	24.888298
0.000000	1565.764648	29.859667
0.000000	1564.755859	44.780067
0.000000	1563.747070	39.796116
0.000000	1562.737305	39.787731
0.000000	1561.727539	44.751762
0.000000	1560.717773	27.342533
0.000000	1559.708008	44.732891
0.000000	1558.697266	39.754185
0.000000	1557.687500	39.745796
0.000000	1556.676758	37.253822
0.000000	1555.666016	47.178215
0.000000	1554.654297	37.238098
0.000000	1553.643555	44.676281
0.000000	1552.631836	62.037285
0.000000	1551.620117	39.695477
0.000000	1550.608398	42.167534
0.000000	1549.596680	44.638542
0.000000	1548.583984	47.108501
0.000000	1547.571289	49.577412
0.000000	1546.558594	39.653542
0.000000	1545.545898	34.689510
0.000000	1544.532227	39.636768
0.000000	1543.518555	59.442574
0.000000	1542.504883	49.524994
0.000000	1541.491211	39.611610
0.000000	1540.477539	47.028828
0.000000	1539.462891	61.866932
0.000000	1538.448242	39.586449
0.000000	1537.433594	42.051693
0.000000	1536.418945	42.042782
0.000000	1535.404297	46.979031
0.000000	1534.388672	51.913185
0.000000	1533.373047	29.658388
0.000000	1532.357422	34.594116
0.000000	1531.340820	39.527744
0.000000	1530.325195	59.279037
0.000000	1529.308594	37.041538
0.000000	1528.291992	41.971497
0.000000	1527.275391	51.836136
0.000000	1526.257813	54.292995
0.000000	1525.240234	39.477428
0.000000	1524.223633	49.336304
0.000000	1523.205078	39.460655
0.000000	1522.187500	32.054970
0.000000	1521.168945	44.374371
0.000000	1520.151367	32.041344
0.000000	1519.132813	54.212284
0.000000	1518.113281	59.128094
0.000000	1517.094727	41.873489
0.000000	1516.075195	36.939335
0.000000	1515.055664	39.393574
0.000000	1514.036133	39.385189
0.000000	1513.016602	34.454704
0.000000	1511.996094	51.671051
0.000000	1510.975586	41.820038
0.000000	1509.955078	36.892170
0.000000	1508.934570	34.425358
0.000000	1507.914063	36.876450
0.000000	1506.892578	36.868591
0.000000	1505.871094	44.232876
0.000000	1504.849609	46.680302
0.000000	1503.827148	44.214012
0.000000	1502.805664	49.116203
0.000000	1501.783203	39.284576
0.000000	1500.760742	39.276196
0.000000	1499.738281	44.176289
0.000000	1498.714844	36.805714
0.000000	1497.691406	29.438284
0.000000	1496.668945	46.600662
0.000000	1495.644531	46.590706
0.000000	1494.621094	31.871040
0.000000	1493.596680	36.766418
0.000000	1492.573242	34.307991
0.000000	1491.547852	26.950516
0.000000	1490.523438	41.641891
0.000000	1489.499023	34.285988
0.000000	1488.473633	46.521030
0.000000	1487.448242	39.167225
0.000000	1486.422852	34.263985
0.000000	1485.396484	56.278786
0.000000	1484.371094	44.034840
0.000000	1483.344727	39.133698
0.000000	1482.318359	41.570652
0.000000	1481.291992	41.561745
0.000000	1480.264648	43.997128
0.000000	1479.237305	39.100178
0.000000	1478.209961	43.978271
0.000000	1477.182617	41.526131
0.000000	1476.155273	34.190659
0.000000	1475.126953	36.624992
0.000000	1474.098633	34.175995
0.000000	1473.070313	34.168663
0.000000	1472.041992	39.041523
0.000000	1471.012695	34.153999
0.000000	1469.983398	31.707621
0.000000	1468.954102	36.577862
0.000000	1467.924805	51.198009
0.000000	1466.895508	51.187016
0.000000	1465.865234	34.117348
0.000000	1464.834961	53.601456
0.000000	1463.804688	41.410404
0.000000	1462.773438	41.401505
0.000000	1461.743164	36.522884
0.000000	1460.711914	41.383705
0.000000	1459.680664	46.242428
0.000000	1458.649414	38.932617
0.000000	1457.617188	43.789772
0.000000	1456.584961	34.051380
0.000000	1455.552734	36.475773
0.000000	1454.520508	46.192699
0.000000	1453.488281	34.029396
0.000000	1452.455078	36.452217
0.000000	1451.421875	46.162865
0.000000	1450.388672	38.865616
0.000000	1449.355469	36.428665
0.000000	1448.321289	67.985519
0.000000	1447.288086	43.695557
0.000000	1446.253906	38.832123
0.000000	1445.218750	43.676716
0.000000	1444.184570	41.241337
0.000000	1443.149414	43.657879
0.000000	1442.114258	33.948803
0.000000	1441.079102	48.487823
0.000000	1440.043945	41.205753
0.000000	1439.007813	43.620205
0.000000	1437.971680	36.342323
0.000000	1436.935547	31.489878
0.000000	1435.899414	50.857277
0.000000	1434.862305	26.633772
0.000000	1433.826172	38.731663
0.000000	1432.789063	31.462675
0.000000	1431.750977	41.134605
0.000000	1430.713867	43.544872
0.000000	1429.675781	36.279545
0.000000	1428.637695	41.107925
0.000000	1427.599609	36.263855
0.000000	1426.561523	53.175480
0.000000	1425.522461	36.248165
0.000000	1424.483398	41.072361
0.000000	1423.444336	33.816978
0.000000	1422.405273	36.224632
0.000000	1421.365234	36.216785
0.000000	1420.326172	43.450733
0.000000	1419.286133	36.201099
0.000000	1418.245117	36.193256
0.000000	1417.205078	43.422497
0.000000	1416.164063	28.942057
0.000000	1415.123047	36.169727
0.000000	1414.082031	50.626640
0.000000	1413.041016	45.795120
0.000000	1411.999023	36.146202
0.000000	1410.957031	50.593704
0.000000	1409.915039	48.174026
0.000000	1408.873047	48.163570
0.000000	1407.831055	40.930149
0.000000	1406.788086	40.921265
0.000000	1405.745117	55.352043
0.000000	1404.702148	40.903492
0.000000	1403.658203	55.327999
0.000000	1402.614258	48.100853
0.000000	1401.571289	60.113003
0.000000	1400.526367	60.099937
0.000000	1399.482422	43.262547
0.000000	1398.437500	48.059048
0.000000	1397.393555	40.841309
0.000000	1396.347656	48.038147
0.000000	1395.302734	48.027699
0.000000	1394.257813	57.620697
0.000000	1393.211914	48.006802
0.000000	1392.166016	45.596535
0.000000	1391.120117	67.180267
0.000000	1390.073242	28.785273
0.000000	1389.026367	43.168507
0.000000	1387.979492	50.352291
0.000000	1386.932617	55.135731
0.000000	1385.885742	55.123718
0.000000	1384.837891	45.527061
0.000000	1383.790039	31.143307
0.000000	1382.742188	40.716984
0.000000	1381.694336	50.286484
0.000000	1380.645508	45.487373
0.000000	1379.596680	55.051651
0.000000	1378.547852	35.895420
0.000000	1377.499023	40.672600
0.000000	1376.450195	55.015625
0.000000	1375.400391	47.829231
0.000000	1374.350586	43.036911
0.000000	1373.300781	40.637096
0.000000	1372.250000	45.408012
0.000000	1371.199219	45.398094
0.000000	1370.148438	42.999325
0.000000	1369.097656	47.766586
0.000000	1368.046875	50.143955
0.000000	1366.995117	47.745708
0.000000	1365.943359	59.669090
0.000000	1364.891602	50.111076
0.000000	1363.839844	57.257275
0.000000	1362.787109	54.859554
0.000000	1361.735352	52.462875
0.000000	1360.682617	50.067242
0.000000	1359.628906	47.672649
0.000000	1358.576172	47.662216
0.000000	1357.522461	38.121426
0.000000	1356.468750	42.877213
0.000000	1355.415039	45.249367
0.000000	1354.360352	50.001503
0.000000	1353.306641	35.707535
0.000000	1352.251953	45.219631
0.000000	1351.196289	47.589180
0.000000	1350.141602	38.062996
0.000000	1349.085938	45.189899
0.000000	1348.030273	40.424202
0.000000	1346.974609	35.660591
0.000000	1345.918945	47.537022
0.000000	1344.862305	47.526592
0.000000	1343.806641	35.637123
0.000000	1342.749023	54.631596
0.000000	1341.692383	54.619602
0.000000	1340.635742	47.484879
0.000000	1339.578125	52.221897
0.000000	1338.520508	35.598019
0.000000	1337.462891	30.844837
0.000000	1336.404297	45.071011
0.000000	1335.345703	40.317833
0.000000	1334.287109	35.566738
0.000000	1333.228516	47.411892
0.000000	1332.169922	45.031395
0.000000	1331.110352	40.282387
0.000000	1330.050781	35.535465
0.000000	1328.991211	35.527649
0.000000	1327.930664	42.623798
0.000000	1326.871094	33.144547
0.000000	1325.810547	42.605038
0.000000	1324.750000	42.595657
0.000000	1323.688477	40.220375
0.000000	1322.627930	42.576900
0.000000	1321.566406	47.297245
0.000000	1320.504883	49.651165
0.000000	1319.443359	40.184944
0.000000	1318.380859	37.812790
0.000000	1317.318359	47.255569
0.000000	1316.255859	49.607407
0.000000	1315.193359	42.511257
0.000000	1314.129883	40.140667
0.000000	1313.067383	49.574593
0.000000	1312.003906	47.203480
0.000000	1310.939453	58.991333
0.000000	1309.875977	44.823517
0.000000	1308.811523	47.172234
0.000000	1307.747070	35.371365
0.000000	1306.682617	33.005985
0.000000	1305.617188	44.783943
0.000000	1304.552734	32.991405
0.000000	1303.487305	47.120167
0.000000	1302.421875	49.465240
0.000000	1301.355469	44.744373
0.000000	1300.290039	28.253357
0.000000	1299.223633	32.954964
0.000000	1298.157227	42.361298
0.000000	1297.089844	37.646156
0.000000	1296.023438	37.637829
0.000000	1294.956055	44.685032
0.000000	1293.888672	35.269852
0.000000	1292.820313	39.963650
0.000000	1291.752930	56.406780
0.000000	1290.684570	37.596195
0.000000	1289.616211	42.286354
0.000000	1288.546875	37.579544
0.000000	1287.478516	56.356827
0.000000	1286.409180	42.258255
0.000000	1285.339844	37.554569
0.000000	1284.270508	42.239525
0.000000	1283.200195	28.153440
0.000000	1282.129883	44.566399
0.000000	1281.059570	32.831116
0.000000	1279.989258	32.823833
0.000000	1278.918945	37.504631
0.000000	1277.847656	46.870384
0.000000	1276.776367	30.458988
0.000000	1275.705078	39.822144
0.000000	1274.632813	37.471344
0.000000	1273.561523	42.145901
0.000000	1272.489258	58.522972
0.000000	1271.416016	44.467579
0.000000	1270.343750	37.438061
0.000000	1269.270508	39.769100
0.000000	1268.197266	35.082584
0.000000	1267.124023	35.074787
0.000000	1266.050781	56.107178
0.000000	1264.976563	39.733749
0.000000	1263.902344	42.061668
0.000000	1262.828125	44.388554
0.000000	1261.753906	46.714394
0.000000	1260.678711	42.033600
0.000000	1259.603516	39.689564
0.000000	1258.528320	49.017368
0.000000	1257.452148	37.338253
0.000000	1256.376953	46.662418
0.000000	1255.300781	46.652027
0.000000	1254.224609	30.317060
0.000000	1253.147461	30.310307
0.000000	1252.071289	51.282932
0.000000	1250.994141	37.288364
0.000000	1249.916992	32.620045
0.000000	1248.839844	37.271736
0.000000	1247.761719	37.263424
0.000000	1246.683594	44.240444
0.000000	1245.605469	39.574726
0.000000	1244.527344	34.911083
0.000000	1243.448242	39.557064
0.000000	1242.369141	37.221867
0.000000	1241.290039	23.258472
0.000000	1240.210938	32.554588
0.000000	1239.130859	44.171360
0.000000	1238.050781	51.134357
0.000000	1236.970703	46.475395
0.000000	1235.890625	34.848755
0.000000	1234.810547	41.809158
0.000000	1233.729492	51.088657
0.000000	1232.648438	44.112156
0.000000	1231.566406	55.708157
0.000000	1230.485352	44.092426
0.000000	1229.403320	30.161753
0.000000	1228.321289	34.794235
0.000000	1227.239258	37.105541
0.000000	1226.156250	46.371544
0.000000	1225.073242	37.088932
0.000000	1223.990234	37.080624
0.000000	1222.907227	41.706360
0.000000	1221.823242	39.380516
0.000000	1220.740234	39.371693
0.000000	1219.656250	34.731941
0.000000	1218.571289	32.409214
0.000000	1217.487305	48.602921
0.000000	1216.402344	37.022491
0.000000	1215.317383	37.014191
0.000000	1214.232422	41.631622
0.000000	1213.146484	50.871677
0.000000	1212.060547	39.301109
0.000000	1210.974609	55.471466
0.000000	1209.888672	39.283470
0.000000	1208.802734	30.033554
0.000000	1207.715820	36.956074
0.000000	1206.628906	36.947773
0.000000	1205.541992	43.865623
0.000000	1204.454102	34.622974
0.000000	1203.366211	36.922871
0.000000	1202.278320	36.914570
0.000000	1201.190430	39.212914
0.000000	1200.101563	41.510220
0.000000	1199.013672	41.500881
0.000000	1197.924805	36.881374
0.000000	1196.834961	46.091343
0.000000	1195.746094	48.385021
0.000000	1194.656250	32.249420
0.000000	1193.566406	43.757217
0.000000	1192.476563	41.444870
0.000000	1191.385742	43.737511
0.000000	1190.294922	52.933479
0.000000	1189.204102	57.523426
0.000000	1188.113281	43.707954
0.000000	1187.021484	48.297901
0.000000	1185.930664	59.783920
0.000000	1184.838867	41.379536
0.000000	1183.746094	41.370205
0.000000	1182.654297	45.956524
0.000000	1181.561523	55.135387
0.000000	1180.468750	41.342209
0.000000	1179.375977	55.110504
0.000000	1178.282227	50.506557
0.000000	1177.188477	52.790386
0.000000	1176.094727	43.599602
0.000000	1175.000977	59.649136
0.000000	1173.906250	48.167263
0.000000	1172.811523	64.208504
0.000000	1171.716797	57.316067
0.000000	1170.622070	50.426739
0.000000	1169.526367	38.957306
0.000000	1168.431641	59.568287
0.000000	1167.334961	59.554813
0.000000	1166.239258	48.091080
0.000000	1165.143555	41.211601
0.000000	1164.046875	29.757196
0.000000	1162.950195	43.481441
0.000000	1161.852539	54.911491
0.000000	1160.755859	50.324135
0.000000	1159.658203	45.738850
0.000000	1158.560547	34.296368
0.000000	1157.461914	38.860409
0.000000	1156.364258	41.136990
0.000000	1155.265625	50.267143
0.000000	1154.166992	43.402691
0.000000	1153.067383	47.960518
0.000000	1151.967773	36.533058
0.000000	1150.869141	45.655960
0.000000	1149.768555	34.234200
0.000000	1148.668945	45.635242
0.000000	1147.568359	47.906128
0.000000	1146.467773	38.772346
0.000000	1145.367188	31.922915
0.000000	1144.266602	31.915665
0.000000	1143.165039	31.908413
0.000000	1142.063477	34.179817
0.000000	1140.961914	38.728321
0.000000	1139.859375	29.609043
0.000000	1138.757813	29.602310
0.000000	1137.655273	43.255077
0.000000	1136.551758	31.864912
0.000000	1135.449219	47.786491
0.000000	1134.345703	34.125443
0.000000	1133.242188	47.764744
0.000000	1132.138672	34.109909
0.000000	1131.034180	45.469521
0.000000	1129.929688	50.005081
0.000000	1128.825195	36.359047
0.000000	1127.720703	52.254223
0.000000	1126.616211	52.242313
0.000000	1125.510742	38.605083
0.000000	1124.405273	40.866650
0.000000	1123.298828	36.317631
0.000000	1122.193359	47.656017
0.000000	1121.086914	45.376328
0.000000	1119.980469	36.292778
0.000000	1118.873047	38.552277
0.000000	1117.766602	27.207161
0.000000	1116.659180	38.534676
0.000000	1115.551758	45.324562
0.000000	1114.443359	38.517078
0.000000	1113.335938	40.773472
0.000000	1112.227539	38.499477
0.000000	1111.118164	47.547310
0.000000	1110.009766	52.063721
0.000000	1108.900391	47.525570
0.000000	1107.791016	38.464283
0.000000	1106.681641	49.765919
0.000000	1105.572266	33.923546
0.000000	1104.461914	24.871572
0.000000	1103.351563	29.386950
0.000000	1102.241211	40.680305
0.000000	1101.129883	38.411491
0.000000	1100.018555	29.366766
0.000000	1098.907227	47.427753
0.000000	1097.795898	33.869205
0.000000	1096.683594	42.891159
0.000000	1095.572266	36.110592
0.000000	1094.458984	22.563944
0.000000	1093.346680	24.814646
0.000000	1092.234375	33.830391
0.000000	1091.121094	33.822628
0.000000	1090.006836	33.814869
0.000000	1088.893555	42.822334
0.000000	1087.779297	33.799343
0.000000	1086.666016	40.549900
0.000000	1085.550781	40.540585
0.000000	1084.436523	42.783009
0.000000	1083.321289	47.275616
0.000000	1082.206055	38.261940
0.000000	1081.090820	40.503330
0.000000	1079.974609	38.244350
0.000000	1078.859375	24.740652
0.000000	1077.743164	40.475391
0.000000	1076.625977	42.714191
0.000000	1075.509766	33.713970
0.000000	1074.392578	42.694530
0.000000	1073.275391	26.958759
0.000000	1072.158203	44.920918
